Data from HRC08061_02.txt Node
Date: Wed May 08 15:05:10 AWST 2024
User: mrg
Spectrometer: HR+C0806
Trigger mode: 4
Integration Time (sec): 1.000000E-1
Scans to average: 1
Electric dark correction enabled: true
Nonlinearity correction enabled: false
Boxcar width: 0
XAxis mode: Wavelengths
Number of Pixels in Spectrum: 2048
>>>>>Begin Spectral Data<<<<<
188.978	13.25
189.45	13.25
189.922	13.25
190.394	-13.75
190.866	-16.75
191.338	-10.75
191.81	1.25
192.282	9.25
192.753	-4.75
193.225	6.25
193.697	-9.75
194.169	-5.75
194.641	0.25
195.112	11.25
195.584	2.25
196.056	-1.75
196.527	5.25
196.999	14.25
197.471	1.25
197.942	-8.75
198.414	4.25
198.885	-5.75
199.357	-25.75
199.828	-3.75
200.3	-0.75
200.771	1.25
201.243	-2.75
201.714	9.25
202.186	2.25
202.657	-0.75
203.128	-14.75
203.6	7.25
204.071	14.25
204.542	-10.75
205.013	-12.75
205.485	-13.75
205.956	-9.75
206.427	-12.75
206.898	-5.75
207.369	10.25
207.84	2.25
208.311	7.25
208.782	-6.75
209.254	-8.75
209.725	-9.75
210.196	-1.75
210.666	1.25
211.137	-0.75
211.608	-0.75
212.079	-3.75
212.55	3.25
213.021	1.25
213.492	-10.75
213.963	1.25
214.433	-6.75
214.904	-5.75
215.375	-25.75
215.846	2.25
216.316	0.25
216.787	-17.75
217.258	-6.75
217.728	-10.75
218.199	10.25
218.669	-5.75
219.14	10.25
219.61	-12.75
220.081	-3.75
220.551	1.25
221.022	-12.75
221.492	-2.75
221.963	-7.75
222.433	-15.75
222.903	-14.75
223.374	6.25
223.844	-2.75
224.314	-11.75
224.785	2.25
225.255	-5.75
225.725	-8.75
226.195	-9.75
226.665	-1.75
227.136	7.25
227.606	-5.75
228.076	-17.75
228.546	12.25
229.016	-10.75
229.486	-9.75
229.956	-9.75
230.426	4.25
230.896	-13.75
231.366	-5.75
231.836	4.25
232.306	10.25
232.776	9.25
233.245	-3.75
233.715	-0.75
234.185	-6.75
234.655	-17.75
235.125	-10.75
235.594	-0.75
236.064	12.25
236.534	-7.75
237.003	19.25
237.473	13.25
237.943	6.25
238.412	-11.75
238.882	-10.75
239.351	-8.75
239.821	-6.75
240.29	-8.75
240.76	-1.75
241.229	3.25
241.699	-16.75
242.168	-13.75
242.638	-6.75
243.107	-3.75
243.576	-24.75
244.046	-13.75
244.515	12.25
244.984	-14.75
245.453	-7.75
245.923	1.25
246.392	-5.75
246.861	1.25
247.33	-11.75
247.799	2.25
248.268	4.25
248.737	-19.75
249.206	11.25
249.675	7.25
250.144	14.25
250.613	-10.75
251.082	-0.75
251.551	-1.75
252.02	-3.75
252.489	-1.75
252.958	0.25
253.427	6.25
253.896	2.25
254.364	-5.75
254.833	2.25
255.302	2.25
255.771	10.25
256.239	-3.75
256.708	12.25
257.177	-8.75
257.645	-4.75
258.114	6.25
258.583	-8.75
259.051	-14.75
259.52	-18.75
259.988	-3.75
260.457	-4.75
260.925	-16.75
261.394	-12.75
261.862	-11.75
262.33	2.25
262.799	-3.75
263.267	2.25
263.735	-1.75
264.204	1.25
264.672	-28.75
265.14	-15.75
265.608	5.25
266.077	-18.75
266.545	-21.75
267.013	-5.75
267.481	0.25
267.949	-13.75
268.417	-7.75
268.885	0.25
269.353	17.25
269.822	-6.75
270.289	14.25
270.757	25.25
271.225	-1.75
271.693	1.25
272.161	5.25
272.629	-7.75
273.097	-0.75
273.565	-19.75
274.033	-6.75
274.5	-3.75
274.968	-0.75
275.436	1.25
275.904	-1.75
276.371	-2.75
276.839	-13.75
277.307	-7.75
277.774	-9.75
278.242	-10.75
278.709	-12.75
279.177	-5.75
279.644	6.25
280.112	14.25
280.579	-0.75
281.047	18.25
281.514	-9.75
281.982	-9.75
282.449	3.25
282.916	5.25
283.384	13.25
283.851	-17.75
284.318	-7.75
284.786	6.25
285.253	-17.75
285.72	-28.75
286.187	-9.75
286.654	6.25
287.122	4.25
287.589	-6.75
288.056	-4.75
288.523	16.25
288.99	-12.75
289.457	-7.75
289.924	-5.75
290.391	-2.75
290.858	1.25
291.325	1.25
291.792	22.25
292.259	14.25
292.725	-4.75
293.192	1.25
293.659	11.25
294.126	-0.75
294.593	-2.75
295.059	2.25
295.526	5.25
295.993	-13.75
296.459	3.25
296.926	4.25
297.393	1.25
297.859	1.25
298.326	-3.75
298.792	18.25
299.259	-0.75
299.725	10.25
300.192	1.25
300.658	-10.75
301.125	-6.75
301.591	9.25
302.058	-0.75
302.524	-12.75
302.99	-10.75
303.457	-4.75
303.923	-0.75
304.389	0.25
304.855	1.25
305.322	-9.75
305.788	-1.75
306.254	-5.75
306.72	-0.75
307.186	-13.75
307.652	17.25
308.118	-20.75
308.584	-6.75
309.05	-8.75
309.516	-4.75
309.982	-11.75
310.448	-8.75
310.914	-14.75
311.38	15.25
311.846	-11.75
312.312	-4.75
312.778	2.25
313.244	5.25
313.709	-6.75
314.175	2.25
314.641	-6.75
315.107	-5.75
315.572	-12.75
316.038	7.25
316.504	15.25
316.969	-4.75
317.435	4.25
317.9	0.25
318.366	-11.75
318.831	-20.75
319.297	-8.75
319.762	7.25
320.228	0.25
320.693	-9.75
321.159	-5.75
321.624	13.25
322.089	-4.75
322.555	-14.75
323.02	-9.75
323.485	9.25
323.951	-9.75
324.416	1.25
324.881	-3.75
325.346	-8.75
325.811	-7.75
326.276	0.25
326.742	12.25
327.207	10.25
327.672	-13.75
328.137	-4.75
328.602	-1.75
329.067	-9.75
329.532	-5.75
329.997	-4.75
330.462	1.25
330.926	-10.75
331.391	-20.75
331.856	-5.75
332.321	-0.75
332.786	-16.75
333.251	-5.75
333.715	-10.75
334.18	8.25
334.645	-18.75
335.109	4.25
335.574	21.25
336.039	-0.75
336.503	-4.75
336.968	-8.75
337.433	-5.75
337.897	10.25
338.362	3.25
338.826	-2.75
339.291	12.25
339.755	-8.75
340.219	5.25
340.684	-0.75
341.148	-13.75
341.612	-16.75
342.077	4.25
342.541	-14.75
343.005	-5.75
343.47	-12.75
343.934	-1.75
344.398	10.25
344.862	-11.75
345.326	17.25
345.79	43.25
346.255	0.25
346.719	-2.75
347.183	-10.75
347.647	-12.75
348.111	2.25
348.575	-6.75
349.039	-2.75
349.503	0.25
349.967	-1.75
350.43	3.25
350.894	18.25
351.358	-2.75
351.822	-17.75
352.286	-2.75
352.749	2.25
353.213	-5.75
353.677	-9.75
354.141	7.25
354.604	5.25
355.068	-1.75
355.532	-18.75
355.995	-0.75
356.459	2.25
356.922	-0.75
357.386	-11.75
357.849	2.25
358.313	5.25
358.776	6.25
359.24	4.25
359.703	-2.75
360.166	-0.75
360.63	-10.75
361.093	-2.75
361.556	-5.75
362.02	-9.75
362.483	-9.75
362.946	3.25
363.409	-2.75
363.873	-14.75
364.336	-16.75
364.799	-2.75
365.262	10.25
365.725	-4.75
366.188	-13.75
366.651	-4.75
367.114	-0.75
367.577	2.25
368.04	-2.75
368.503	2.25
368.966	-12.75
369.429	0.25
369.892	-8.75
370.355	-8.75
370.817	4.25
371.28	3.25
371.743	5.25
372.206	-6.75
372.668	-14.75
373.131	-7.75
373.594	-0.75
374.056	4.25
374.519	-5.75
374.982	2.25
375.444	-0.75
375.907	-12.75
376.369	-11.75
376.832	4.25
377.294	7.25
377.757	-14.75
378.219	-27.75
378.682	-3.75
379.144	-12.75
379.606	-15.75
380.069	-3.75
380.531	-0.75
380.993	-2.75
381.455	-4.75
381.918	-4.75
382.38	5.25
382.842	13.25
383.304	-9.75
383.766	5.25
384.229	-9.75
384.691	-2.75
385.153	-6.75
385.615	17.25
386.077	5.25
386.539	-18.75
387.001	3.25
387.463	14.25
387.925	-2.75
388.386	-8.75
388.848	-11.75
389.31	4.25
389.772	-14.75
390.234	0.25
390.696	11.25
391.157	2.25
391.619	5.25
392.081	-9.75
392.542	-14.75
393.004	-4.75
393.466	-9.75
393.927	-9.75
394.389	-9.75
394.85	-10.75
395.312	-11.75
395.773	-6.75
396.235	6.25
396.696	-20.75
397.158	-5.75
397.619	8.25
398.08	5.25
398.542	-15.75
399.003	-26.75
399.464	-2.75
399.926	-2.75
400.387	-6.75
400.848	-14.75
401.309	18.25
401.771	12.25
402.232	-17.75
402.693	-2.75
403.154	3.25
403.615	-18.75
404.076	-17.75
404.537	-14.75
404.998	10.25
405.459	-18.75
405.92	-1.75
406.381	-0.75
406.842	-6.75
407.303	-12.75
407.764	-0.75
408.225	0.25
408.685	-12.75
409.146	-18.75
409.607	-2.75
410.068	4.25
410.528	3.25
410.989	-2.75
411.45	-6.75
411.91	7.25
412.371	-4.75
412.832	-3.75
413.292	-1.75
413.753	-6.75
414.213	-13.75
414.674	-14.75
415.134	-13.75
415.595	-5.75
416.055	-19.75
416.515	1.25
416.976	2.25
417.436	-4.75
417.896	6.25
418.357	1.25
418.817	-3.75
419.277	-16.75
419.738	9.25
420.198	10.25
420.658	6.25
421.118	-12.75
421.578	-21.75
422.038	-13.75
422.498	-8.75
422.958	-1.75
423.418	9.25
423.878	7.25
424.338	-2.75
424.798	-10.75
425.258	-9.75
425.718	-2.75
426.178	-16.75
426.638	-0.75
427.098	3.25
427.558	3.25
428.017	-11.75
428.477	-7.75
428.937	14.25
429.396	-1.75
429.856	0.25
430.316	-7.75
430.775	13.25
431.235	1.25
431.695	14.25
432.154	-2.75
432.614	18.25
433.073	-3.75
433.533	-16.75
433.992	0.25
434.452	-8.75
434.911	-1.75
435.37	2.25
435.83	-2.75
436.289	-4.75
436.748	4.25
437.208	16.25
437.667	8.25
438.126	-5.75
438.585	-10.75
439.045	12.25
439.504	-2.75
439.963	-18.75
440.422	-0.75
440.881	3.25
441.34	-4.75
441.799	2.25
442.258	-7.75
442.717	15.25
443.176	2.25
443.635	-3.75
444.094	4.25
444.553	-0.75
445.012	-10.75
445.47	-4.75
445.929	5.25
446.388	6.25
446.847	-12.75
447.306	7.25
447.764	22.25
448.223	3.25
448.682	3.25
449.14	-0.75
449.599	11.25
450.057	-4.75
450.516	-8.75
450.975	12.25
451.433	19.25
451.892	-13.75
452.35	-1.75
452.808	2.25
453.267	1.25
453.725	-23.75
454.184	-10.75
454.642	19.25
455.1	18.25
455.559	-8.75
456.017	5.25
456.475	22.25
456.933	-4.75
457.391	-12.75
457.85	-11.75
458.308	7.25
458.766	-0.75
459.224	-14.75
459.682	-18.75
460.14	8.25
460.598	-7.75
461.056	-3.75
461.514	6.25
461.972	7.25
462.43	-12.75
462.888	17.25
463.346	10.25
463.804	17.25
464.261	6.25
464.719	-19.75
465.177	7.25
465.635	-10.75
466.092	-2.75
466.55	15.25
467.008	5.25
467.465	42.25
467.923	-6.75
468.381	-5.75
468.838	4.25
469.296	2.25
469.753	7.25
470.211	9.25
470.668	-5.75
471.126	3.25
471.583	10.25
472.04	11.25
472.498	-2.75
472.955	7.25
473.412	0.25
473.87	-1.75
474.327	-2.75
474.784	-0.75
475.241	-0.75
475.699	-5.75
476.156	-7.75
476.613	-6.75
477.07	12.25
477.527	-10.75
477.984	-18.75
478.441	14.25
478.898	7.25
479.355	-19.75
479.812	-8.75
480.269	17.25
480.726	3.25
481.183	-9.75
481.64	-0.75
482.097	18.25
482.553	23.25
483.01	-25.75
483.467	11.25
483.924	6.25
484.38	5.25
484.837	-2.75
485.294	16.25
485.75	-2.75
486.207	4.25
486.664	16.25
487.12	-3.75
487.577	3.25
488.033	6.25
488.49	-2.75
488.946	13.25
489.403	4.25
489.859	-0.75
490.315	10.25
490.772	10.25
491.228	-2.75
491.684	-11.75
492.141	0.25
492.597	4.25
493.053	1.25
493.509	-0.75
493.965	6.25
494.422	12.25
494.878	7.25
495.334	13.25
495.79	22.25
496.246	6.25
496.702	-7.75
497.158	9.25
497.614	13.25
498.07	24.25
498.526	3.25
498.982	13.25
499.438	13.25
499.894	2.25
500.349	3.25
500.805	12.25
501.261	31.25
501.717	0.25
502.172	33.25
502.628	49.25
503.084	20.25
503.54	21.25
503.995	47.25
504.451	39.25
504.906	19.25
505.362	6.25
505.817	12.25
506.273	31.25
506.728	24.25
507.184	27.25
507.639	19.25
508.095	16.25
508.55	3.25
509.005	35.25
509.461	27.25
509.916	19.25
510.371	23.25
510.827	-0.75
511.282	39.25
511.737	10.25
512.192	25.25
512.647	20.25
513.102	24.25
513.557	35.25
514.013	29.25
514.468	11.25
514.923	51.25
515.378	48.25
515.833	28.25
516.288	26.25
516.742	26.25
517.197	19.25
517.652	40.25
518.107	54.25
518.562	36.25
519.017	38.25
519.471	52.25
519.926	56.25
520.381	43.25
520.836	54.25
521.29	92.25
521.745	89.25
522.199	90.25
522.654	131.25
523.109	169.25
523.563	225.25
524.018	240.25
524.472	362.25
524.927	472.25
525.381	675.25
525.835	960.25
526.29	1373.25
526.744	2033.25
527.199	2912.25
527.653	4140.25
528.107	5624.25
528.561	7201.25
529.016	8772.25
529.47	10020.25
529.924	10822.25
530.378	11246.25
530.832	11386.25
531.286	11505.25
531.741	11580.25
532.195	11531.25
532.649	11535.25
533.103	11366.25
533.557	11161.25
534.011	10870.25
534.464	10639.25
534.918	10177.25
535.372	9572.25
535.826	8970.25
536.28	8142.25
536.734	7212.25
537.187	5981.25
537.641	4691.25
538.095	3598.25
538.549	2691.25
539.002	1801.25
539.456	1326.25
539.91	908.25
540.363	644.25
540.817	453.25
541.27	327.25
541.724	252.25
542.177	189.25
542.631	144.25
543.084	110.25
543.538	118.25
543.991	66.25
544.444	63.25
544.898	75.25
545.351	60.25
545.804	45.25
546.258	43.25
546.711	45.25
547.164	42.25
547.617	21.25
548.07	18.25
548.524	40.25
548.977	23.25
549.43	13.25
549.883	27.25
550.336	14.25
550.789	6.25
551.242	11.25
551.695	22.25
552.148	12.25
552.601	7.25
553.054	18.25
553.506	25.25
553.959	24.25
554.412	17.25
554.865	12.25
555.318	11.25
555.77	15.25
556.223	-2.75
556.676	11.25
557.128	34.25
557.581	10.25
558.033	-5.75
558.486	16.25
558.939	18.25
559.391	12.25
559.844	2.25
560.296	35.25
560.749	13.25
561.201	5.25
561.653	6.25
562.106	6.25
562.558	-2.75
563.01	10.25
563.463	-0.75
563.915	-4.75
564.367	-11.75
564.819	-1.75
565.272	4.25
565.724	4.25
566.176	-0.75
566.628	7.25
567.08	14.25
567.532	13.25
567.984	7.25
568.436	22.25
568.888	19.25
569.34	0.25
569.792	16.25
570.244	7.25
570.696	5.25
571.148	5.25
571.599	12.25
572.051	6.25
572.503	-1.75
572.955	-3.75
573.407	8.25
573.858	10.25
574.31	2.25
574.762	0.25
575.213	12.25
575.665	16.25
576.116	7.25
576.568	-2.75
577.019	11.25
577.471	14.25
577.922	-2.75
578.374	18.25
578.825	6.25
579.277	-9.75
579.728	-5.75
580.179	11.25
580.631	11.25
581.082	-14.75
581.533	-11.75
581.984	-8.75
582.436	15.25
582.887	-10.75
583.338	-2.75
583.789	21.25
584.24	23.25
584.691	-2.75
585.142	-2.75
585.593	20.25
586.044	1.25
586.495	5.25
586.946	4.25
587.397	1.25
587.848	13.25
588.299	3.25
588.75	-3.75
589.201	1.25
589.651	17.25
590.102	13.25
590.553	5.25
591.004	13.25
591.454	21.25
591.905	4.25
592.356	12.25
592.806	21.25
593.257	3.25
593.707	6.25
594.158	15.25
594.608	-2.75
595.059	-10.75
595.509	5.25
595.96	19.25
596.41	-4.75
596.861	2.25
597.311	16.25
597.761	15.25
598.212	13.25
598.662	3.25
599.112	-12.75
599.562	0.25
600.012	-8.75
600.463	-9.75
600.913	5.25
601.363	2.25
601.813	4.25
602.263	-10.75
602.713	10.25
603.163	-13.75
603.613	-3.75
604.063	17.25
604.513	13.25
604.963	-14.75
605.413	-3.75
605.863	6.25
606.312	14.25
606.762	-4.75
607.212	5.25
607.662	0.25
608.112	-4.75
608.561	-9.75
609.011	-0.75
609.461	7.25
609.91	4.25
610.36	-11.75
610.809	-21.75
611.259	2.25
611.708	-15.75
612.158	-3.75
612.607	5.25
613.057	1.25
613.506	-6.75
613.956	-10.75
614.405	6.25
614.854	-3.75
615.304	-14.75
615.753	20.25
616.202	17.25
616.651	0.25
617.101	1.25
617.55	7.25
617.999	9.25
618.448	-23.75
618.897	-7.75
619.346	4.25
619.795	-2.75
620.244	3.25
620.693	-3.75
621.142	-8.75
621.591	-17.75
622.04	-3.75
622.489	12.25
622.938	6.25
623.387	-2.75
623.836	-10.75
624.284	-2.75
624.733	-5.75
625.182	-6.75
625.631	-17.75
626.079	11.25
626.528	8.25
626.977	-17.75
627.425	-8.75
627.874	-1.75
628.322	-17.75
628.771	-7.75
629.219	-2.75
629.668	9.25
630.116	-6.75
630.565	-9.75
631.013	9.25
631.462	-6.75
631.91	-4.75
632.358	3.25
632.806	-3.75
633.255	2.25
633.703	-2.75
634.151	6.25
634.599	14.25
635.048	-16.75
635.496	-20.75
635.944	-2.75
636.392	-13.75
636.84	-7.75
637.288	-7.75
637.736	-3.75
638.184	-3.75
638.632	-17.75
639.08	-0.75
639.528	20.25
639.976	6.25
640.423	-37.75
640.871	6.25
641.319	14.25
641.767	6.25
642.215	-5.75
642.662	-4.75
643.11	-1.75
643.558	2.25
644.005	-5.75
644.453	15.25
644.9	11.25
645.348	-4.75
645.796	-15.75
646.243	0.25
646.691	-0.75
647.138	-3.75
647.585	-14.75
648.033	5.25
648.48	-2.75
648.928	-9.75
649.375	0.25
649.822	3.25
650.269	-9.75
650.717	-4.75
651.164	-14.75
651.611	4.25
652.058	-2.75
652.505	-10.75
652.952	1.25
653.4	-10.75
653.847	-12.75
654.294	-4.75
654.741	0.25
655.188	8.25
655.635	-10.75
656.081	1.25
656.528	4.25
656.975	-1.75
657.422	1.25
657.869	4.25
658.316	-9.75
658.762	-15.75
659.209	0.25
659.656	8.25
660.103	2.25
660.549	-15.75
660.996	-5.75
661.443	20.25
661.889	3.25
662.336	-6.75
662.782	0.25
663.229	1.25
663.675	-9.75
664.122	-21.75
664.568	-15.75
665.014	7.25
665.461	-8.75
665.907	-9.75
666.353	9.25
666.8	3.25
667.246	-5.75
667.692	-2.75
668.139	-4.75
668.585	-3.75
669.031	-26.75
669.477	-2.75
669.923	14.25
670.369	-9.75
670.815	4.25
671.261	-5.75
671.707	-1.75
672.153	-9.75
672.599	7.25
673.045	15.25
673.491	5.25
673.937	0.25
674.383	-0.75
674.829	9.25
675.274	-12.75
675.72	-10.75
676.166	-3.75
676.612	-2.75
677.057	0.25
677.503	3.25
677.948	4.25
678.394	14.25
678.84	2.25
679.285	0.25
679.731	-5.75
680.176	-9.75
680.622	-2.75
681.067	-8.75
681.513	-3.75
681.958	-9.75
682.403	-13.75
682.849	-10.75
683.294	-6.75
683.739	-35.75
684.184	-0.75
684.63	5.25
685.075	-4.75
685.52	-2.75
685.965	3.25
686.41	-9.75
686.855	3.25
687.301	-19.75
687.746	-10.75
688.191	11.25
688.636	-12.75
689.081	-6.75
689.526	-4.75
689.97	-0.75
690.415	-3.75
690.86	-13.75
691.305	1.25
691.75	-1.75
692.195	0.25
692.639	-14.75
693.084	8.25
693.529	5.25
693.973	-14.75
694.418	-3.75
694.863	-8.75
695.307	-3.75
695.752	-16.75
696.196	6.25
696.641	-6.75
697.085	-13.75
697.53	7.25
697.974	-17.75
698.419	-5.75
698.863	-4.75
699.307	-18.75
699.752	-16.75
700.196	-16.75
700.64	-19.75
701.085	-7.75
701.529	9.25
701.973	-16.75
702.417	-6.75
702.861	-10.75
703.305	13.25
703.749	-4.75
704.193	-10.75
704.638	-3.75
705.082	-10.75
705.526	-4.75
705.969	-15.75
706.413	-18.75
706.857	-14.75
707.301	-16.75
707.745	-1.75
708.189	5.25
708.633	-26.75
709.076	-19.75
709.52	-8.75
709.964	-2.75
710.407	-13.75
710.851	3.25
711.295	10.25
711.738	-26.75
712.182	-25.75
712.626	-25.75
713.069	-15.75
713.513	-10.75
713.956	-23.75
714.399	-29.75
714.843	11.25
715.286	-2.75
715.73	-6.75
716.173	3.25
716.616	-0.75
717.06	-6.75
717.503	-13.75
717.946	5.25
718.389	-3.75
718.832	-9.75
719.276	4.25
719.719	-1.75
720.162	-11.75
720.605	-10.75
721.048	-2.75
721.491	5.25
721.934	-17.75
722.377	-21.75
722.82	-1.75
723.263	-10.75
723.706	-1.75
724.148	-6.75
724.591	1.25
725.034	3.25
725.477	-10.75
725.92	-6.75
726.362	-8.75
726.805	1.25
727.248	-4.75
727.69	-4.75
728.133	-3.75
728.575	-24.75
729.018	-0.75
729.46	-21.75
729.903	-2.75
730.345	-10.75
730.788	-7.75
731.23	7.25
731.673	-15.75
732.115	-15.75
732.557	9.25
733	0.25
733.442	-20.75
733.884	-12.75
734.327	-9.75
734.769	3.25
735.211	-33.75
735.653	-4.75
736.095	-0.75
736.537	4.25
736.979	-11.75
737.421	-17.75
737.863	11.25
738.305	-10.75
738.747	-10.75
739.189	-3.75
739.631	2.25
740.073	-10.75
740.515	-9.75
740.957	-18.75
741.399	-12.75
741.84	-0.75
742.282	2.25
742.724	-7.75
743.166	-2.75
743.607	-5.75
744.049	-6.75
744.49	-10.75
744.932	-2.75
745.374	-16.75
745.815	-3.75
746.257	-5.75
746.698	-8.75
747.14	-17.75
747.581	-9.75
748.022	-8.75
748.464	-28.75
748.905	-22.75
749.346	5.25
749.788	1.25
750.229	-21.75
750.67	-12.75
751.111	4.25
751.553	-0.75
751.994	-9.75
752.435	-13.75
752.876	12.25
753.317	-9.75
753.758	-6.75
754.199	-1.75
754.64	4.25
755.081	-7.75
755.522	-10.75
755.963	16.25
756.404	0.25
756.845	-19.75
757.285	-24.75
757.726	-2.75
758.167	-2.75
758.608	-20.75
759.048	-13.75
759.489	2.25
759.93	-0.75
760.37	-1.75
760.811	-12.75
761.252	1.25
761.692	-15.75
762.133	-17.75
762.573	-0.75
763.014	3.25
763.454	4.25
763.895	-0.75
764.335	3.25
764.775	-1.75
765.216	5.25
765.656	-6.75
766.096	-6.75
766.536	3.25
766.977	0.25
767.417	2.25
767.857	6.25
768.297	-13.75
768.737	-12.75
769.177	5.25
769.617	-7.75
770.058	-17.75
770.498	-4.75
770.938	3.25
771.377	-5.75
771.817	-20.75
772.257	4.25
772.697	22.25
773.137	-19.75
773.577	-3.75
774.017	13.25
774.456	12.25
774.896	-16.75
775.336	6.25
775.776	-0.75
776.215	7.25
776.655	-2.75
777.094	8.25
777.534	6.25
777.974	-10.75
778.413	-12.75
778.853	0.25
779.292	8.25
779.731	-0.75
780.171	-5.75
780.61	14.25
781.05	11.25
781.489	-15.75
781.928	-1.75
782.368	-3.75
782.807	-12.75
783.246	-14.75
783.685	1.25
784.124	-5.75
784.564	1.25
785.003	-8.75
785.442	-12.75
785.881	3.25
786.32	-7.75
786.759	-16.75
787.198	-3.75
787.637	-12.75
788.076	-9.75
788.515	-5.75
788.953	-4.75
